"Spectral Irradiance Values for OL FEL-M S/N: F-1739.","[W/(cm^2 nm)]",10/30/22,250.00,1100.00,10.00
1.890000E-008
3.359000E-008
5.608000E-008
8.843000E-008
1.333000E-007
1.932000E-007
2.713000E-007
3.715000E-007
4.956000E-007
6.490000E-007
8.323000E-007
1.045000E-006
1.294000E-006
1.577000E-006
1.895000E-006
2.245000E-006
2.634131E-006
3.059895E-006
3.519793E-006
4.011327E-006
4.532000E-006
5.080381E-006
5.652636E-006
6.246001E-006
6.857711E-006
7.485000E-006
8.125359E-006
8.775720E-006
9.433261E-006
1.009516E-005
1.075859E-005
1.141984E-005
1.207643E-005
1.272690E-005
1.336889E-005
1.400000E-005
1.461416E-005
1.521333E-005
1.579601E-005
1.636075E-005
1.690608E-005
1.742809E-005
1.792655E-005
1.840325E-005
1.885785E-005
1.929000E-005
1.969327E-005
2.007279E-005
2.042895E-005
2.076212E-005
2.107270E-005
2.136106E-005
2.162758E-005
2.187266E-005
2.209667E-005
2.230000E-005
2.248085E-005
2.264192E-005
2.278372E-005
2.290677E-005
2.301157E-005
2.309865E-005
2.316852E-005
2.322169E-005
2.325868E-005
2.328000E-005
2.328255E-005
2.327037E-005
2.324411E-005
2.320444E-005
2.315200E-005
2.308746E-005
2.301146E-005
2.292467E-005
2.282774E-005
2.272133E-005
2.260610E-005
2.248269E-005
2.235177E-005
2.221398E-005
2.207000E-005
2.192047E-005
2.176605E-005
2.160739E-005
2.144516E-005
2.128000E-005
