"Spectral Irradiance Values for OL FEL-M S/N: F-1711.","[W/(cm^2 nm)]",12/16/21,250.00,1100.00,10.00
1.653000E-008
2.955000E-008
4.934000E-008
7.817000E-008
1.184000E-007
1.727000E-007
2.435000E-007
3.354000E-007
4.467000E-007
5.895000E-007
7.589000E-007
9.567000E-007
1.189000E-006
1.453000E-006
1.753000E-006
2.087000E-006
2.456836E-006
2.860782E-006
3.297109E-006
3.764091E-006
4.260000E-006
4.787373E-006
5.339152E-006
5.912545E-006
6.504759E-006
7.113000E-006
7.734173E-006
8.365843E-006
9.005285E-006
9.649772E-006
1.029658E-005
1.094187E-005
1.158335E-005
1.221998E-005
1.284959E-005
1.347000E-005
1.407719E-005
1.467116E-005
1.525016E-005
1.581250E-005
1.635644E-005
1.687727E-005
1.737478E-005
1.785130E-005
1.830648E-005
1.874000E-005
1.914639E-005
1.952995E-005
1.989094E-005
2.022966E-005
2.054639E-005
2.084141E-005
2.111499E-005
2.136743E-005
2.159901E-005
2.181000E-005
2.199701E-005
2.216422E-005
2.231214E-005
2.244128E-005
2.255214E-005
2.264523E-005
2.272106E-005
2.278013E-005
2.282294E-005
2.285000E-005
2.285889E-005
2.285296E-005
2.283284E-005
2.279915E-005
2.275250E-005
2.269352E-005
2.262283E-005
2.254104E-005
2.244878E-005
2.234667E-005
2.223532E-005
2.211536E-005
2.198741E-005
2.185208E-005
2.171000E-005
2.156179E-005
2.140806E-005
2.124944E-005
2.108655E-005
2.092000E-005
